# histogram for class 1
#  domain: 3.728956  5.549049
#  entropy: 7.05967
#  bin centers     counts
  3.728956       0.000000
  3.738102       0.121940
  3.747248       0.878060
  3.756394       0.091301
  3.765540       2.921970
  3.774686       2.793707
  3.783833       1.193023
  3.792979       0.651205
  3.802125       1.554877
  3.811271       5.142177
  3.820417       9.579748
  3.829564       6.509988
  3.838710       13.529022
  3.847856       15.453551
  3.857002       21.028267
  3.866148       20.017610
  3.875295       26.234919
  3.884441       42.889817
  3.893587       40.108248
  3.902733       51.661986
  3.911879       72.509030
  3.921026       84.734995
  3.930172       102.981633
  3.939318       123.568885
  3.948464       155.795747
  3.957610       155.556075
  3.966757       196.461129
  3.975903       219.862522
  3.985049       244.004691
  3.994195       286.189718
  4.003341       297.140333
  4.012488       330.598283
  4.021634       333.245139
  4.030780       349.998059
  4.039926       350.076957
  4.049072       347.895645
  4.058219       335.890983
  4.067365       325.781303
  4.076511       353.610435
  4.085657       378.585608
  4.094803       353.884214
  4.103950       383.970431
  4.113096       418.485813
  4.122242       423.680108
  4.131388       433.502016
  4.140534       415.132279
  4.149681       420.967090
  4.158827       482.876751
  4.167973       429.311439
  4.177119       418.717357
  4.186265       450.135010
  4.195412       503.802990
  4.204558       476.241433
  4.213704       517.154151
  4.222850       487.175046
  4.231996       493.126545
  4.241143       520.507597
  4.250289       527.367023
  4.259435       564.844387
  4.268581       568.288640
  4.277727       543.115662
  4.286874       541.234539
  4.296020       608.790014
  4.305166       557.810658
  4.314312       558.244098
  4.323458       572.869766
  4.332605       568.695634
  4.341751       613.598613
  4.350897       618.644538
  4.360043       573.180246
  4.369189       577.927664
  4.378336       587.991097
  4.387482       574.803253
  4.396628       588.484399
  4.405774       597.087443
  4.414920       595.549006
  4.424067       571.682872
  4.433213       588.674652
  4.442359       575.201425
  4.451505       580.077576
  4.460651       550.422832
  4.469798       544.903895
  4.478944       534.464165
  4.488090       535.148433
  4.497236       549.429487
  4.506382       525.888672
  4.515529       541.217617
  4.524675       527.035186
  4.533821       521.359842
  4.542967       519.898624
  4.552113       496.048360
  4.561260       517.119726
  4.570406       547.076193
  4.579552       529.837414
  4.588698       511.754892
  4.597844       524.119649
  4.606991       512.040595
  4.616137       520.702482
  4.625283       497.093891
  4.634429       498.064387
  4.643575       500.745722
  4.652722       520.177258
  4.661868       517.174760
  4.671014       507.726314
  4.680160       581.777191
  4.689306       589.979769
  4.698452       550.432867
  4.707599       567.224453
  4.716745       560.204821
  4.725891       526.234943
  4.735037       543.619902
  4.744183       537.555071
  4.753330       497.848252
  4.762476       449.797042
  4.771622       480.744144
  4.780768       462.066490
  4.789914       427.761223
  4.799061       388.317061
  4.808207       387.958975
  4.817353       347.314457
  4.826499       334.682097
  4.835645       289.566383
  4.844792       251.646438
  4.853938       243.734248
  4.863084       225.374348
  4.872230       206.759584
  4.881376       178.095042
  4.890523       151.162029
  4.899669       154.533330
  4.908815       141.924426
  4.917961       145.271772
  4.927107       137.912985
  4.936254       122.531604
  4.945400       121.122719
  4.954546       116.132927
  4.963692       121.439865
  4.972838       114.431593
  4.981985       100.480350
  4.991131       100.121556
  5.000277       98.583544
  5.009423       114.520146
  5.018569       97.970827
  5.027716       102.637767
  5.036862       108.803406
  5.046008       78.217683
  5.055154       88.404906
  5.064300       89.414628
  5.073447       84.766787
  5.082593       95.605358
  5.091739       101.771180
  5.100885       103.056008
  5.110031       79.853944
  5.119178       63.107910
  5.128324       66.438671
  5.137470       76.651703
  5.146616       84.485032
  5.155762       95.786838
  5.164909       78.542533
  5.174055       69.229011
  5.183201       69.416656
  5.192347       60.557747
  5.201493       69.968535
  5.210640       77.893171
  5.219786       60.552031
  5.228932       68.193758
  5.238078       59.880165
  5.247224       63.505667
  5.256371       64.889481
  5.265517       52.666917
  5.274663       44.071975
  5.283809       58.761505
  5.292955       46.227166
  5.302102       38.235346
  5.311248       45.187630
  5.320394       41.343927
  5.329540       47.905789
  5.338686       47.058824
  5.347833       40.385747
  5.356979       38.050292
  5.366125       36.303639
  5.375271       39.488084
  5.384417       36.849465
  5.393564       23.694805
  5.402710       27.589377
  5.411856       39.234991
  5.421002       43.729095
  5.430148       46.979964
  5.439295       44.236834
  5.448441       26.976055
  5.457587       19.007256
  5.466733       11.072533
  5.475879       10.515624
  5.485026       6.586738
  5.494172       7.206370
  5.503318       4.036982
  5.512464       4.069701
  5.521610       1.647137
  5.530757       0.528802
  5.539903       1.115112
  5.549049       1.638809
