# histogram for class 1
#  domain: 3.974120  5.542476
#  entropy: 7.33658
#  bin centers     counts
  3.974120       0.000000
  3.982001       1.768768
  3.989882       2.737182
  3.997763       5.267894
  4.005644       10.063547
  4.013526       18.597831
  4.021407       27.376521
  4.029288       49.150856
  4.037169       93.530379
  4.045050       123.240019
  4.052932       164.795983
  4.060813       175.150835
  4.068694       220.943445
  4.076575       199.536793
  4.084456       210.959963
  4.092337       220.851871
  4.100219       215.275573
  4.108100       225.830864
  4.115981       202.804383
  4.123862       202.309477
  4.131743       210.782683
  4.139625       226.581119
  4.147506       224.406549
  4.155387       212.411528
  4.163268       235.737192
  4.171149       246.090955
  4.179031       242.343486
  4.186912       251.202574
  4.194793       282.967486
  4.202674       275.710618
  4.210555       280.272828
  4.218436       263.736070
  4.226318       267.676181
  4.234199       276.266805
  4.242080       296.499044
  4.249961       267.939908
  4.257842       276.855426
  4.265724       271.119704
  4.273605       274.598770
  4.281486       265.453629
  4.289367       301.147784
  4.297248       332.695313
  4.305129       336.381418
  4.313011       338.592720
  4.320892       373.648661
  4.328773       360.409146
  4.336654       356.901017
  4.344535       330.990012
  4.352417       354.420334
  4.360298       360.445481
  4.368179       356.598626
  4.376060       356.473028
  4.383941       343.508248
  4.391823       327.300096
  4.399704       337.660169
  4.407585       362.898243
  4.415466       372.751840
  4.423347       388.854129
  4.431228       409.927656
  4.439110       401.223656
  4.446991       379.567500
  4.454872       424.674256
  4.462753       424.846537
  4.470634       419.904327
  4.478516       425.878629
  4.486397       387.103713
  4.494278       385.937126
  4.502159       378.113032
  4.510040       355.839355
  4.517922       381.291036
  4.525803       404.471664
  4.533684       396.123780
  4.541565       407.610375
  4.549446       374.460896
  4.557327       372.056235
  4.565209       368.667891
  4.573090       370.945276
  4.580971       376.441365
  4.588852       359.954446
  4.596733       327.380515
  4.604615       334.611726
  4.612496       336.404493
  4.620377       356.342539
  4.628258       361.244908
  4.636139       353.223253
  4.644020       340.351698
  4.651902       357.794970
  4.659783       350.381131
  4.667664       330.866129
  4.675545       310.822060
  4.683426       338.117490
  4.691308       341.485350
  4.699189       335.613462
  4.707070       340.791783
  4.714951       306.828013
  4.722832       349.479818
  4.730714       344.943890
  4.738595       339.037353
  4.746476       343.665539
  4.754357       331.931562
  4.762238       322.331458
  4.770119       306.900228
  4.778001       335.232837
  4.785882       329.079425
  4.793763       323.279459
  4.801644       347.789980
  4.809525       329.069926
  4.817407       321.346117
  4.825288       345.509409
  4.833169       340.503945
  4.841050       335.032990
  4.848931       307.847982
  4.856813       322.835084
  4.864694       340.285021
  4.872575       323.280730
  4.880456       317.186536
  4.888337       298.203940
  4.896218       285.587930
  4.904100       290.376022
  4.911981       281.779823
  4.919862       265.108212
  4.927743       248.171607
  4.935624       280.261999
  4.943506       295.387004
  4.951387       272.352571
  4.959268       241.214671
  4.967149       223.801596
  4.975030       218.304456
  4.982911       193.486491
  4.990793       189.162416
  4.998674       185.917361
  5.006555       168.869064
  5.014436       174.127407
  5.022317       160.657780
  5.030199       166.605839
  5.038080       150.636474
  5.045961       146.783245
  5.053842       130.082515
  5.061723       109.881952
  5.069605       122.299045
  5.077486       123.087136
  5.085367       134.526763
  5.093248       116.138352
  5.101129       112.965825
  5.109010       107.520752
  5.116892       110.915632
  5.124773       122.627871
  5.132654       106.562165
  5.140535       102.142525
  5.148416       102.796712
  5.156298       93.521841
  5.164179       107.702992
  5.172060       101.057201
  5.179941       98.586571
  5.187822       99.585171
  5.195704       95.754274
  5.203585       110.233999
  5.211466       110.822522
  5.219347       106.297633
  5.227228       95.210257
  5.235109       87.338653
  5.242991       84.295822
  5.250872       74.450800
  5.258753       82.509603
  5.266634       77.127294
  5.274515       80.446640
  5.282397       79.485714
  5.290278       63.368990
  5.298159       80.021471
  5.306040       70.454616
  5.313921       63.478436
  5.321802       70.665796
  5.329684       55.119968
  5.337565       53.326465
  5.345446       56.001271
  5.353327       53.031996
  5.361208       54.091376
  5.369090       53.677367
  5.376971       56.148202
  5.384852       40.797137
  5.392733       45.727945
  5.400614       38.929231
  5.408496       30.238455
  5.416377       37.310618
  5.424258       29.533985
  5.432139       40.055696
  5.440020       41.930093
  5.447901       28.350340
  5.455783       27.127351
  5.463664       25.931636
  5.471545       28.799072
  5.479426       31.190754
  5.487307       20.998638
  5.495189       22.615616
  5.503070       72.216368
  5.510951       80.401139
  5.518832       28.426287
  5.526713       6.980111
  5.534595       9.566989
  5.542476       3.327881
